LogHead Version 1.0 -- USGS Geophysical Log Archive Header
 
Site ID (C1): 253813080295001
Station name (C12): G-3789
Other ID (C190): CB-1
Date of log: 03-09-2004
Start time of log: 09:57
Office/logging unit: Miami FISC/CWRS
Logging operator: M. Wacker
Observer: 
 
Description of log-measuring point: Land surface, top of pad.
Height of log-measuring point above/below land-surface datum: 0.0 FT
Altitude of log-measuring point (NGVD): 7.98 FT
Log orientation: UNKNOWN
Magnetic declination: 
Logging direction: DOWN
Logging speed: 10 FT/MIN
Depth error after logging:  FT
 
Logging probe manufacturer: Mount Sopris
Logging probe model: FLP-2492
Logging probe serial number: SN-2372
Description of calibration/standardization: 
Date of calibration/standardization: 
Standard:  
Response:  
Standard:  
Response:  
 
Borehole fluid type: WATER
Depth of borehole fluid below log-measuring point:  FT
Borehole fluid resistivity/conductivity:  US/CM
Borehole fluid temperature:  F
Hydrologic conditions: 

Software for non-ASCII logs: WellCAD ascii .LAS file

Remarks: Smoothed and edited from raw data (RD) file.

~OTHER
#------------------------------------------------------------
~A	DEPT.FT	SFM-.CPS
     5.97797     1.69684
     6.07640     1.70233
     6.17482     1.69690
     6.27325     1.71216
     6.37167     1.71521
     6.47010     1.70953
     6.56852     1.70996
     6.66695     1.70544
     6.76537     1.69959
     6.86380     1.73228
     6.96222     1.69806
     7.06065     1.70551
     7.15907     1.73228
     7.25750     1.73228
     7.35592     1.63780
     7.45435     1.73228
     7.55277     1.70666
     7.65120     1.69550
     7.74962     1.69080
     7.84805     1.73228
     7.94647     1.68189
     8.04490     1.73228
     8.14332     1.73228
     8.24175     1.63780
     8.34017     1.73228
     8.43860     1.73228
     8.53703     1.69043
     8.63545     1.71631
     8.73388     1.73228
     8.83230     1.73228
     8.93073     1.73228
     9.02915     1.66602
     9.12758     1.73228
     9.22600     1.68146
     9.32443     1.73228
     9.42285     1.70032
     9.52128     1.73228
     9.61970     1.68854
     9.71813     1.73228
     9.81655     1.65358
     9.91498     3.41235
     10.0134     3.37795
     10.1118     3.30709
     10.2103     3.37008
     10.3087     3.30709
     10.4071     3.37008
     10.5055     3.37008
     10.6040     3.37964
     10.7024     3.30709
     10.8008     3.37008
     10.8992     3.37008
     10.9977     3.37795
     11.0961     3.37795
     11.1945     3.37795
     11.2929     3.34729
     11.3914     3.31845
     11.4898     1.67120
     11.5882     1.66144
     11.6866     1.72441
     11.7851     1.67511
     11.8835     1.68048
     11.9819     1.72441
     12.0803     1.69305
     12.1788     1.65354
     12.2772     1.72441
     12.3756     1.72441
     12.4740     1.72441
     12.5725     1.70093
     12.6709     1.72441
     12.7693     1.72441
     12.8677     1.72441
     12.9662     1.71014
     13.0646     1.65354
     13.1630     1.72441
     13.2614     1.72441
     13.3599     1.72446
     13.4583     3.37795
     13.5567     3.37795
     13.6551     3.37795
     13.7536     3.31018
     13.8520     3.35864
     13.9504     3.38659
     14.0488     3.29102
     14.1473     3.35681
     14.2457     3.37795
     14.3441     3.37795
     14.4425     3.27185
     14.5410     3.33142
     14.6394     3.30872
     14.7378     3.34631
     14.8362     3.30709
     14.9347     3.34461
     15.0331     3.38867
     15.1315     3.37795
     15.2299     3.42520
     15.3284     3.37795
     15.4268     3.43298
     15.5252     3.38257
     15.6236     3.42519
     15.7221     3.37795
     15.8205     3.42520
     15.9189     3.40063
     16.0173     3.37795
     16.1158     3.42520
     16.2142     3.42520
     16.3126     3.41333
     16.4110     3.35083
     16.5095     3.42520
     16.6079     3.42520
     16.7063     3.42520
     16.8047     3.42520
     16.9032     3.37795
     17.0016     3.42520
     17.1000     3.42520
     17.1984     3.42520
     17.2969     3.42520
     17.3953     3.42520
     17.4937     3.42520
     17.5921     3.42514
     17.6906     1.69409
     17.7890     1.72441
     17.8874     1.65234
     17.9858     1.66588
     18.0843     3.36145
     18.1827     3.35413
     18.2811     3.37795
     18.3795     3.37795
     18.4780     3.37842
     18.5764     3.33191
     18.6748     3.28589
     18.7732     3.25984
     18.8717     3.25984
     18.9701     3.26672
     19.0685     3.30530
     19.1669     3.32483
     19.2654     3.30127
     19.3638     3.28857
     19.4622     3.26441
     19.5606     3.30708
     19.6591     3.23841
     19.7575     3.30709
     19.8559     3.25366
     19.9543     3.30708
     20.0528     3.20117
     20.1512     3.30709
     20.2496     3.20252
     20.3480     3.30709
     20.4465     3.30709
     20.5449     3.30709
     20.6433     3.30709
     20.7418     3.30420
     20.8402     3.28906
     20.9386     3.27429
     21.0370     3.27222
     21.1355     3.28552
     21.2339     3.28125
     21.3323     3.30709
     21.4307     3.30709
     21.5292     3.30709
     21.6276     3.30709
     21.7260     3.30708
     21.8244     3.25415
     21.9229     3.30709
     22.0213     3.31494
     22.1197     3.30871
     22.2181     3.18898
     22.3166     3.25122
     22.4150     3.24890
     22.5134     3.24561
     22.6118     3.23992
     22.7103     1.60803
     22.8087     1.60630
     22.9071     1.60630
     23.0055     1.60630
     23.1040     1.60376
     23.2024     1.57001
     23.3008     1.60630
     23.3992     1.60630
     23.4977     1.60630
     23.5961     1.53544
     23.6945     1.60630
     23.7929     1.60637
     23.8914     3.30888
     23.9898     4.79528
     24.0882     4.84252
     24.1866     4.84252
     24.2851     4.79528
     24.3835     4.84252
     24.4819     4.84252
     24.5803     4.84252
     24.6788     4.84252
     24.7772     4.84252
     24.8756     4.84252
     24.9740     4.79528
     25.0725     4.84252
     25.1709     4.79528
     25.2693     4.84252
     25.3677     4.79528
     25.4662     4.85254
     25.5646     4.85351
     25.6630     4.79528
     25.7614     4.83521
     25.8599     4.85013
     25.9583     6.45874
     26.0567     6.45337
     26.1551     6.45532
     26.2536     6.44877
     26.3520     4.90820
     26.4504     4.92798
     26.5488     4.90625
     26.6473     4.96063
     26.7457     4.94336
     26.8441     4.96921
     26.9425     3.25984
     27.0410     3.25984
     27.1394     3.25984
     27.2378     3.26062
     27.3362     3.25623
     27.4347     3.25984
     27.5331     3.25984
     27.6315     3.25984
     27.7299     3.25984
     27.8284     3.25984
     27.9268     3.25984
     28.0252     3.25984
     28.1236     3.25984
     28.2221     3.25984
     28.3205     3.24902
     28.4189     3.26013
     28.5173     3.25317
     28.6158     3.23145
     28.7142     3.25708
     28.8126     3.25984
     28.9110     3.25984
     29.0095     3.24609
     29.1079     3.23694
     29.2063     3.24402
     29.3047     3.25366
     29.4032     3.25984
     29.5016     3.18898
     29.6000     3.25984
     29.6984     3.25984
     29.7969     3.25984
     29.8953     3.25984
     29.9937     3.25984
     30.0921     3.27551
     30.1906     3.25256
     30.2890     3.27368
     30.3874     3.30359
     30.4858     3.30709
     30.5843     3.30709
     30.6827     3.30709
     30.7811     3.31543
     30.8795     3.25984
     30.9780     3.25984
     31.0764     3.25984
     31.1748     3.26990
     31.2732     3.26562
     31.3717     3.25330
     31.4701     3.24670
     31.5685     3.24255
     31.6669     3.24439
     31.7654     3.26025
     31.8638     3.25867
     31.9622     3.26721
     32.0606     3.26672
     32.1591     3.25984
     32.2575     3.25984
     32.3559     3.18898
     32.4543     3.25984
     32.5528     3.25984
     32.6512     3.25984
     32.7496     3.25984
     32.8480     3.25984
     32.9465     3.25984
     33.0449     3.25984
     33.1433     3.25984
     33.2417     3.18898
     33.3402     3.25984
     33.4386     3.25991
     33.5370     4.91339
     33.6355     4.91339
     33.7339     4.92358
     33.8323     4.91339
     33.9307     4.91339
     34.0292     4.91339
     34.1276     4.92139
     34.2260     4.90796
     34.3244     4.91724
     34.4229     4.90698
     34.5213     4.81543
     34.6197     4.91338
     34.7181     4.85552
     34.8166     6.61417
     34.9150     6.61417
     35.0134     6.61417
     35.1118     6.56693
     35.2103     6.61417
     35.3087     6.61417
     35.4071     6.61417
     35.5055     6.61417
     35.6040     6.56693
     35.7024     6.62573
     35.8008     6.58594
     35.8992     6.58203
     35.9977     6.55267
     36.0961     4.98145
     36.1945     5.07874
     36.2929     5.00586
     36.3914     5.07874
     36.4898     5.07874
     36.5882     4.97754
     36.6866     5.07874
     36.7851     5.07874
     36.8835     5.03150
     36.9819     5.07874
     37.0803     5.07874
     37.1788     5.07874
     37.2772     5.07874
     37.3756     5.07874
     37.4740     5.07874
     37.5725     5.07874
     37.6709     5.07874
     37.7693     5.07874
     37.8677     5.07874
     37.9662     5.07874
     38.0646     5.07874
     38.1630     5.07874
     38.2614     5.02026
     38.3599     5.04688
     38.4583     5.05029
     38.5567     5.03150
     38.6551     5.07874
     38.7536     5.07863
     38.8520     3.28296
     38.9504     3.32385
     39.0488     3.37795
     39.1473     3.32543
     39.2457     5.03100
     39.3441     4.98950
     39.4425     4.98947
     39.5410     3.32581
     39.6394     3.37795
     39.7378     3.27600
     39.8362     3.37795
     39.9347     3.37795
     40.0331     3.27979
     40.1315     3.37795
     40.2299     3.37795
     40.3284     3.27344
     40.4268     3.37795
     40.5252     3.28089
     40.6236     3.37795
     40.7221     3.29309
     40.8205     3.32068
     40.9189     3.30933
     41.0173     3.32422
     41.1158     3.33557
     41.2142     3.37087
     41.3126     1.67310
     41.4110     1.65354
     41.5095     1.67163
     41.6079     1.72441
     41.7063     1.66797
     41.8047     1.66406
     41.9032     1.67706
     42.0016     1.68023
     42.1000     1.65354
     42.1984     1.72441
     42.2969     1.72441
     42.3953     1.65528
     42.4937    0.000000
     42.5921  4.00650e-006
     42.6906   0.0708637
     42.7890    0.000000
     42.8874    0.000000
     42.9858  2.58222e-006
     43.0843   0.0708627
     43.1827    0.000000
     43.2811    0.000000
     43.3795    0.000000
     43.4780    0.000000
     43.5764    0.000000
     43.6748    0.000000
     43.7732    0.000000
     43.8717    0.000000
     43.9701    0.000000
     44.0685    0.000000
     44.1669    0.000000
     44.2654    0.000000
     44.3638    0.000000
     44.4622    0.000000
     44.5606    0.000000
     44.6591    0.000000
     44.7575    0.000000
     44.8559    0.000000
     44.9543    0.000000
     45.0528    0.000000
     45.1512    0.000000
     45.2496    0.000000
     45.3480    0.000000
     45.4465    0.000000
     45.5449    0.000000
     45.6433    0.000000
     45.7417    0.000000
     45.8402    0.000000
     45.9386    0.000000
     46.0370    0.000000
     46.1355    0.000000
     46.2339    0.000000
     46.3323    0.000000
     46.4307    0.000000
     46.5292    0.000000
     46.6276    0.000000
     46.7260    0.000000
     46.8244    0.000000
     46.9229    0.000000
     47.0213    0.000000
     47.1197    0.000000
     47.2181    0.000000
     47.3166    0.000000
     47.4150    0.000000
     47.5134    0.000000
     47.6118    0.000000
     47.7103    0.000000
     47.8087    0.000000
     47.9071    0.000000
     48.0055    0.000000
     48.1040    0.000000
     48.2024    0.000000
     48.3008    0.000000
     48.3992    0.000000
     48.4977    0.000000
     48.5961    0.000000
     48.6945    0.000000
     48.7929    0.000000
     48.8914    0.000000
     48.9898    0.000000
     49.0882    0.000000
     49.1866    0.000000
     49.2851    0.000000
     49.3835    0.000000
     49.4819    0.000000
     49.5803    0.000000
     49.6788    0.000000
     49.7772    0.000000
     49.8756    0.000000
     49.9740    0.000000
     50.0725    0.000000
     50.1709    0.000000
     50.2693    0.000000
     50.3677    0.000000
     50.4662    0.000000
     50.5646    0.000000
     50.6630    0.000000
     50.7614    0.000000
     50.8599    0.000000
     50.9583    0.000000
     51.0567    0.000000
     51.1551    0.000000
     51.2536    0.000000
     51.3520    0.000000
     51.4504    0.000000
     51.5488    0.000000
     51.6473    0.000000
     51.7457    0.000000
     51.8441    0.000000
     51.9425    0.000000
     52.0410    0.000000
     52.1394    0.000000
     52.2378    0.000000
     52.3362    0.000000
     52.4347    0.000000
     52.5331    0.000000
     52.6315    0.000000
     52.7299    0.000000
     52.8284    0.000000
     52.9268    0.000000
     53.0252    0.000000
     53.1236    0.000000
     53.2221    0.000000
     53.3205    0.000000
     53.4189    0.000000
     53.5173    0.000000
     53.6158    0.000000
     53.7142    0.000000
     53.8126    0.000000
     53.9110    0.000000
     54.0095    0.000000
     54.1079    0.000000
     54.2063    0.000000
     54.3047    0.000000
     54.4032    0.000000
     54.5016    0.000000
     54.6000    0.000000
     54.6984    0.000000
     54.7969    0.000000
     54.8953    0.000000
     54.9937  -5.11808e-006
     55.0921     1.66602
     55.1906     1.66547
     55.2890     1.68073
     55.3874     1.68335
     55.4858     1.69312
     55.5843     1.70373
     55.6827     1.68976
     55.7811     1.68903
     55.8795     1.68921
     55.9780     1.67956
     56.0764     1.67432
     56.1748     1.67413
     56.2732     1.70044
     56.3717     1.69183
     56.4701     1.68927
     56.5685     1.69433
     56.6669     1.67432
     56.7654     1.66718
     56.8638     1.72441
     56.9622     1.72441
     57.0606     1.65354
