Header:
Instrument	ASRC_U111
Source	Sun
Location	TMTF
Environment	Outdoors
Year	2004
Day	86
Date	2004MAR26
Operation	Discrete
Measurement_purpose	Irradiance
Number_of_scans	1
Number_of_columns	4
Number_of_rows	701
Start_time	18.99984	[UTC]
Stop_time	19.28262	[UTC]
Start_wavelength	290.00	[nm]
Stop_wavelength	360.00	[nm]
Increment_wavelength	0.10	[nm]
Dark_signal	0.36310	[p_s^-1]
ForeOptic_temperature	32.97	[ns]
Front_temperature	32.97	[ns]
Back_temperature	24.90	[ns]
Inside_temperature	24.30	[ns]
Shelter_temperature	22.33	[ns]
PSUnit_temperature	25.36	[ns]
AirCond_temperature	18.97	[ns]
Outside_temperature	26.49	[ns]
Comments	none
Formatted_file	2004086f12.u11
Responsivity_file	03352Rsm.u11
Analysis_program	Calc_Irrad.c
Labels:
Wavelength	Irradiance	dE(R)/E	dE(S)/E
[nm]	[mW_m^-2_nm^-1]
Data:
290.076	0.00099	0.1253	0.0000
290.176	-0.00056	0.1660	-0.0000
290.276	0.00099	0.1253	-0.0000
290.376	0.00099	0.1253	-0.0000
290.476	0.00099	0.1253	-0.0000
290.576	0.00099	0.1253	-0.0000
290.676	0.00253	0.0782	-0.0000
290.776	-0.00056	0.1660	-0.0000
290.876	0.00098	0.1253	-0.0000
290.976	0.00098	0.1253	-0.0000
291.076	-0.00056	0.1660	-0.0000
291.176	-0.00056	0.1660	0.0000
291.276	0.00098	0.1253	0.0000
291.376	0.00252	0.0782	0.0000
291.476	0.00098	0.1253	0.0000
291.576	0.00406	0.0616	0.0000
291.676	0.00252	0.0782	0.0000
291.776	0.00405	0.0616	0.0000
291.875	0.00405	0.0616	0.0000
291.975	0.00405	0.0616	0.0000
292.075	0.00404	0.0616	0.0000
292.175	0.00711	0.0464	-0.0000
292.275	0.00557	0.0524	-0.0000
292.375	0.00251	0.0782	-0.0000
292.475	0.00710	0.0464	-0.0000
292.575	0.00403	0.0616	-0.0000
292.675	0.00556	0.0524	-0.0000
292.775	0.00708	0.0464	-0.0000
292.875	0.00403	0.0616	-0.0000
292.975	0.01318	0.0340	-0.0000
293.075	0.01469	0.0322	-0.0000
293.175	0.01773	0.0293	0.0000
293.275	0.02077	0.0271	0.0000
293.375	0.02380	0.0253	0.0000
293.475	0.03139	0.0220	0.0000
293.575	0.04202	0.0190	0.0000
293.675	0.01616	0.0307	0.0000
293.775	0.02830	0.0232	0.0000
293.874	0.02981	0.0226	0.0000
293.974	0.04041	0.0194	0.0000
294.074	0.04190	0.0190	0.0000
294.174	0.04188	0.0190	-0.0000
294.274	0.06155	0.0157	-0.0000
294.374	0.06000	0.0159	-0.0000
294.474	0.05392	0.0168	-0.0000
294.574	0.08414	0.0134	-0.0000
294.674	0.10677	0.0119	-0.0000
294.774	0.04477	0.0184	-0.0000
294.874	0.05079	0.0172	-0.0000
294.974	0.07793	0.0139	-0.0000
295.074	0.12164	0.0111	-0.0000
295.174	0.15927	0.0097	0.0000
295.274	0.20591	0.0086	0.0000
295.374	0.11995	0.0112	0.0000
295.474	0.24636	0.0078	0.0000
295.574	0.30644	0.0070	0.0000
295.674	0.24011	0.0079	0.0000
295.773	0.22347	0.0082	0.0000
295.873	0.37063	0.0064	0.0000
295.973	0.33892	0.0067	0.0000
296.073	0.35978	0.0065	0.0000
296.173	0.44066	0.0058	-0.0000
296.273	0.61897	0.0049	-0.0000
296.373	0.63369	0.0049	-0.0000
296.473	0.44907	0.0058	-0.0000
296.573	0.31555	0.0069	-0.0000
296.673	0.22557	0.0081	-0.0000
296.773	0.50837	0.0054	-0.0000
296.873	0.56950	0.0051	-0.0000
296.973	0.42420	0.0059	-0.0000
297.073	0.48681	0.0055	-0.0000
297.173	0.88112	0.0041	0.0000
297.273	0.64775	0.0048	0.0000
297.373	0.59075	0.0050	0.0000
297.473	1.35323	0.0033	0.0000
297.573	1.31988	0.0034	0.0000
297.673	1.48940	0.0032	0.0000
297.772	2.11053	0.0027	0.0000
297.872	1.68947	0.0030	0.0000
297.972	1.60245	0.0030	0.0000
298.072	1.63760	0.0030	0.0000
298.172	1.05047	0.0038	-0.0000
298.272	1.47869	0.0032	-0.0000
298.372	0.92923	0.0040	-0.0000
298.472	1.15793	0.0036	-0.0000
298.572	1.19618	0.0035	-0.0000
298.672	1.79766	0.0029	-0.0000
298.772	1.58759	0.0031	-0.0000
298.872	2.27914	0.0026	-0.0000
298.972	3.01033	0.0022	-0.0000
299.072	3.75146	0.0020	-0.0000
299.172	3.14938	0.0022	0.0000
299.272	3.60673	0.0020	0.0000
299.372	3.19638	0.0022	0.0000
299.472	1.78273	0.0029	0.0000
299.572	3.96952	0.0019	0.0000
299.672	5.06466	0.0017	0.0000
299.771	6.01850	0.0016	0.0000
299.871	4.97296	0.0017	0.0000
299.971	2.63281	0.0024	0.0000
300.071	2.28877	0.0025	0.0000
300.171	3.24684	0.0021	-0.0000
300.271	2.71057	0.0023	-0.0000
300.371	4.29798	0.0019	-0.0000
300.471	6.91349	0.0015	-0.0000
300.571	6.80833	0.0015	-0.0000
300.671	5.57290	0.0016	-0.0000
300.771	4.48877	0.0018	-0.0000
300.871	4.91307	0.0017	-0.0000
300.971	6.21280	0.0015	-0.0000
301.071	10.81725	0.0012	-0.0000
301.171	8.15384	0.0013	0.0000
301.271	9.82691	0.0012	0.0000
301.371	10.85757	0.0012	0.0000
301.471	11.02057	0.0012	0.0000
301.571	11.70855	0.0011	0.0000
301.671	10.74498	0.0012	0.0000
301.770	7.92295	0.0014	0.0000
301.870	7.99962	0.0014	0.0000
301.970	6.93130	0.0015	0.0000
302.070	3.35134	0.0021	0.0000
302.170	6.01857	0.0016	-0.0000
302.270	14.19788	0.0010	-0.0000
302.370	16.22493	0.0010	-0.0000
302.470	14.54685	0.0010	-0.0000
302.570	11.44427	0.0011	-0.0000
302.670	13.75216	0.0010	-0.0000
302.770	27.34354	0.0007	-0.0000
302.870	24.05383	0.0008	-0.0000
302.970	22.32182	0.0008	-0.0000
303.070	22.61472	0.0008	-0.0000
303.170	19.06976	0.0009	0.0000
303.270	34.40403	0.0007	0.0000
303.370	30.97197	0.0007	0.0000
303.470	29.81863	0.0007	0.0000
303.570	35.56901	0.0006	0.0000
303.670	29.13762	0.0007	0.0000
303.770	12.00993	0.0011	0.0000
303.869	25.52186	0.0008	0.0000
303.969	31.08713	0.0007	0.0000
304.069	25.09552	0.0008	0.0000
304.169	20.41292	0.0008	0.0000
304.269	28.83844	0.0007	0.0000
304.369	37.86074	0.0006	0.0000
304.469	37.92553	0.0006	0.0000
304.569	42.26405	0.0006	0.0000
304.669	38.28609	0.0006	0.0000
304.769	17.98626	0.0009	0.0000
304.869	34.09813	0.0007	0.0000
304.969	52.08378	0.0005	0.0000
305.069	39.53129	0.0006	0.0000
305.169	58.98652	0.0005	0.0000
305.269	68.53049	0.0005	0.0000
305.369	41.81493	0.0006	0.0000
305.469	45.21984	0.0006	0.0000
305.569	55.77685	0.0005	0.0000
305.669	47.88435	0.0006	0.0000
305.769	22.89208	0.0008	0.0000
305.869	27.30036	0.0007	0.0000
305.969	32.35299	0.0007	0.0000
306.068	50.97519	0.0005	0.0000
306.168	63.46747	0.0005	0.0000
306.268	60.98677	0.0005	0.0000
306.368	48.88192	0.0005	0.0000
306.468	42.53068	0.0006	0.0000
306.568	59.57516	0.0005	0.0000
306.668	37.14096	0.0006	0.0000
306.768	44.31479	0.0006	0.0000
306.868	61.13181	0.0005	0.0000
306.968	76.98008	0.0004	0.0000
307.068	77.56309	0.0004	0.0000
307.168	77.40054	0.0004	0.0000
307.268	67.41727	0.0005	0.0000
307.368	87.49744	0.0004	0.0000
307.468	83.15903	0.0004	0.0000
307.568	54.36294	0.0005	0.0000
307.668	93.85371	0.0004	0.0000
307.768	87.75703	0.0004	0.0000
307.868	79.83687	0.0004	0.0000
307.968	98.11905	0.0004	0.0000
308.068	83.68763	0.0004	0.0000
308.167	64.55425	0.0005	0.0000
308.267	69.35907	0.0005	0.0000
308.367	71.20708	0.0005	0.0000
308.467	117.59348	0.0004	0.0000
308.567	113.52586	0.0004	0.0000
308.667	95.31637	0.0004	0.0000
308.767	76.22886	0.0004	0.0000
308.867	87.76105	0.0004	0.0000
308.967	88.28207	0.0004	0.0000
309.067	77.40413	0.0004	0.0000
309.167	70.59988	0.0005	0.0000
309.267	45.57007	0.0006	0.0000
309.367	61.48484	0.0005	0.0000
309.467	103.83047	0.0004	0.0000
309.567	121.78252	0.0003	0.0000
309.667	70.01292	0.0005	0.0000
309.767	82.08364	0.0004	0.0000
309.867	114.20084	0.0004	0.0000
309.967	73.22708	0.0004	0.0000
310.067	47.53085	0.0006	0.0000
310.167	56.29095	0.0005	0.0000
310.267	101.68861	0.0004	0.0000
310.367	140.80453	0.0003	0.0000
310.466	140.54175	0.0003	0.0000
310.566	135.95683	0.0003	0.0000
310.666	150.92654	0.0003	0.0000
310.766	158.29240	0.0003	0.0000
310.866	182.47842	0.0003	0.0000
310.966	164.51494	0.0003	0.0000
311.066	139.18730	0.0003	0.0000
311.166	164.12013	0.0003	0.0000
311.266	178.12773	0.0003	0.0000
311.366	157.40610	0.0003	0.0000
311.466	145.45743	0.0003	0.0000
311.566	181.95959	0.0003	0.0000
311.666	129.32414	0.0003	0.0000
311.766	138.74747	0.0003	0.0000
311.866	138.86154	0.0003	0.0000
311.966	130.20383	0.0003	0.0000
312.066	137.58588	0.0003	0.0000
312.166	138.82695	0.0003	0.0000
312.266	145.85706	0.0003	0.0000
312.366	187.40746	0.0003	0.0000
312.466	195.96054	0.0003	0.0000
312.566	134.68558	0.0003	0.0000
312.665	161.60150	0.0003	0.0000
312.765	189.08813	0.0003	0.0000
312.865	164.62456	0.0003	0.0000
312.965	194.05798	0.0003	0.0000
313.065	161.58354	0.0003	0.0000
313.165	181.00940	0.0003	0.0000
313.265	163.08272	0.0003	0.0000
313.365	159.62048	0.0003	0.0000
313.465	146.72888	0.0003	0.0000
313.565	179.57693	0.0003	0.0000
313.665	161.37799	0.0003	0.0000
313.765	202.80486	0.0003	0.0000
313.865	222.49860	0.0003	0.0000
313.965	211.08661	0.0003	0.0000
314.065	205.32262	0.0003	0.0000
314.165	234.17218	0.0003	0.0000
314.265	179.73740	0.0003	0.0000
314.365	93.08173	0.0004	0.0000
314.465	88.62511	0.0004	0.0000
314.565	162.44568	0.0003	0.0000
314.665	198.12566	0.0003	0.0000
314.765	172.75168	0.0003	0.0000
314.865	231.59552	0.0003	0.0000
314.965	246.31602	0.0002	0.0000
315.064	210.36896	0.0003	0.0000
315.164	226.73784	0.0003	0.0000
315.264	220.02194	0.0003	0.0000
315.364	226.00650	0.0003	0.0000
315.464	191.89020	0.0003	0.0000
315.564	203.85687	0.0003	0.0000
315.664	175.42514	0.0003	0.0000
315.764	121.51713	0.0003	0.0000
315.864	120.72104	0.0004	0.0000
315.964	135.99548	0.0003	0.0000
316.064	149.08286	0.0003	0.0000
316.164	150.22914	0.0003	0.0000
316.264	190.05075	0.0003	0.0000
316.364	241.94315	0.0002	0.0000
316.464	196.37869	0.0003	0.0000
316.564	227.29996	0.0003	0.0000
316.664	246.98616	0.0002	0.0000
316.764	247.32722	0.0002	0.0000
316.864	199.69762	0.0003	0.0000
316.964	237.75977	0.0002	0.0000
317.064	290.62469	0.0002	0.0000
317.164	309.58218	0.0002	0.0000
317.264	317.42578	0.0002	0.0000
317.363	290.86139	0.0002	0.0000
317.463	276.79245	0.0002	0.0000
317.563	258.92285	0.0002	0.0000
317.663	319.56686	0.0002	0.0000
317.763	273.70468	0.0002	0.0000
317.863	206.71898	0.0003	0.0000
317.963	165.23380	0.0003	0.0000
318.063	191.11417	0.0003	0.0000
318.163	165.83672	0.0003	0.0000
318.263	211.69685	0.0003	0.0000
318.363	219.62463	0.0003	0.0000
318.463	235.03815	0.0003	0.0000
318.563	271.52252	0.0002	0.0000
318.663	261.01205	0.0002	0.0000
318.763	287.18976	0.0002	0.0000
318.863	284.75323	0.0002	0.0000
318.963	403.44382	0.0002	0.0000
319.063	291.89023	0.0002	0.0000
319.163	215.53430	0.0003	0.0000
319.263	162.37082	0.0003	0.0000
319.363	232.00981	0.0003	0.0000
319.463	243.75706	0.0002	0.0000
319.563	263.18948	0.0002	0.0000
319.663	245.74216	0.0002	0.0000
319.763	267.58990	0.0002	0.0000
319.862	373.90744	0.0002	0.0000
319.962	290.24649	0.0002	0.0000
320.062	236.69392	0.0003	0.0000
320.162	349.46765	0.0002	0.0000
320.262	282.55658	0.0002	0.0000
320.362	362.47021	0.0002	0.0000
320.462	381.73389	0.0002	0.0000
320.562	340.12607	0.0002	0.0000
320.662	391.79205	0.0002	0.0000
320.762	377.98737	0.0002	0.0000
320.862	298.79608	0.0002	0.0000
320.962	303.08279	0.0002	0.0000
321.062	251.68246	0.0002	0.0000
321.162	240.32716	0.0002	0.0000
321.262	262.03177	0.0002	0.0000
321.362	222.00722	0.0003	0.0000
321.462	238.24411	0.0003	0.0000
321.562	316.11459	0.0002	0.0000
321.662	265.27417	0.0002	0.0000
321.762	329.64487	0.0002	0.0000
321.862	389.74826	0.0002	0.0000
321.962	309.37967	0.0002	0.0000
322.062	362.15759	0.0002	0.0000
322.162	293.41858	0.0002	0.0000
322.262	243.46732	0.0002	0.0000
322.361	297.74838	0.0002	0.0000
322.461	349.59152	0.0002	0.0000
322.561	233.07884	0.0003	0.0000
322.661	246.45441	0.0002	0.0000
322.761	238.47272	0.0003	0.0000
322.861	218.50728	0.0003	0.0000
322.961	212.20099	0.0003	0.0000
323.061	285.05875	0.0002	0.0000
323.161	332.97171	0.0002	0.0000
323.261	341.46902	0.0002	0.0000
323.361	310.79974	0.0002	0.0000
323.461	222.33159	0.0003	0.0000
323.561	341.11276	0.0002	0.0000
323.661	245.01958	0.0002	0.0000
323.761	353.13583	0.0002	0.0000
323.861	366.49258	0.0002	0.0000
323.961	269.25854	0.0002	0.0000
324.061	423.45386	0.0002	0.0000
324.161	344.08472	0.0002	0.0000
324.261	381.64346	0.0002	0.0000
324.361	321.06592	0.0002	0.0000
324.461	367.89935	0.0002	0.0000
324.561	398.48309	0.0002	0.0000
324.661	425.40878	0.0002	0.0000
324.761	276.34180	0.0002	0.0000
324.861	290.48993	0.0002	0.0000
324.960	330.62506	0.0002	0.0000
325.060	315.95114	0.0002	0.0000
325.160	355.97778	0.0002	0.0000
325.260	365.19138	0.0002	0.0000
325.360	371.99216	0.0002	0.0000
325.460	414.12384	0.0002	0.0000
325.560	481.09525	0.0002	0.0000
325.660	465.17661	0.0002	0.0000
325.760	420.20941	0.0002	0.0000
325.860	487.66113	0.0002	0.0000
325.960	528.17346	0.0002	0.0000
326.060	502.43509	0.0002	0.0000
326.160	448.16821	0.0002	0.0000
326.260	522.69019	0.0002	0.0000
326.360	481.34027	0.0002	0.0000
326.460	397.92371	0.0002	0.0000
326.560	415.86047	0.0002	0.0000
326.660	543.52667	0.0002	0.0000
326.760	506.13159	0.0002	0.0000
326.860	532.05646	0.0002	0.0000
326.960	484.03522	0.0002	0.0000
327.060	477.46753	0.0002	0.0000
327.160	376.16339	0.0002	0.0000
327.260	466.09048	0.0002	0.0000
327.360	495.96783	0.0002	0.0000
327.460	457.94568	0.0002	0.0000
327.560	529.73303	0.0002	0.0000
327.659	419.94522	0.0002	0.0000
327.759	437.75641	0.0002	0.0000
327.859	431.28476	0.0002	0.0000
327.959	396.32452	0.0002	0.0000
328.059	463.92932	0.0002	0.0000
328.159	442.30328	0.0002	0.0000
328.259	395.84525	0.0002	0.0000
328.359	455.28720	0.0002	0.0000
328.459	474.69687	0.0002	0.0000
328.559	440.06903	0.0002	0.0000
328.659	343.53708	0.0002	0.0000
328.759	367.81870	0.0002	0.0000
328.859	417.35403	0.0002	0.0000
328.959	531.95660	0.0002	0.0000
329.059	549.90674	0.0002	0.0000
329.159	523.38531	0.0002	0.0000
329.259	532.79218	0.0002	0.0000
329.359	606.96338	0.0002	0.0000
329.459	573.05859	0.0002	0.0000
329.559	519.64655	0.0002	0.0000
329.659	560.18262	0.0002	0.0000
329.759	590.64935	0.0002	0.0000
329.859	515.76355	0.0002	0.0000
329.959	561.01526	0.0002	0.0000
330.059	692.24969	0.0001	0.0000
330.159	570.77734	0.0002	0.0000
330.259	429.80740	0.0002	0.0000
330.358	486.52377	0.0002	0.0000
330.458	493.25903	0.0002	0.0000
330.558	372.35001	0.0002	0.0000
330.658	347.13834	0.0002	0.0000
330.758	453.20557	0.0002	0.0000
330.858	503.34680	0.0002	0.0000
330.958	509.01935	0.0002	0.0000
331.058	465.95691	0.0002	0.0000
331.158	529.90131	0.0002	0.0000
331.258	440.54193	0.0002	0.0000
331.358	491.40851	0.0002	0.0000
331.458	395.84885	0.0002	0.0000
331.558	430.64209	0.0002	0.0000
331.658	516.19464	0.0002	0.0000
331.758	534.41156	0.0002	0.0000
331.858	536.44983	0.0002	0.0000
331.958	517.56732	0.0002	0.0000
332.058	481.67557	0.0002	0.0000
332.158	534.22949	0.0002	0.0000
332.258	381.83496	0.0002	0.0000
332.358	402.05316	0.0002	0.0000
332.458	466.66150	0.0002	0.0000
332.558	585.39594	0.0002	0.0000
332.658	526.15662	0.0002	0.0000
332.758	479.73419	0.0002	0.0000
332.858	490.50922	0.0002	0.0000
332.958	383.24268	0.0002	0.0000
333.058	545.63116	0.0002	0.0000
333.158	488.29904	0.0002	0.0000
333.257	499.06442	0.0002	0.0000
333.357	534.95190	0.0002	0.0000
333.457	467.66946	0.0002	0.0000
333.557	378.39508	0.0002	0.0000
333.657	319.37076	0.0002	0.0000
333.757	432.14789	0.0002	0.0000
333.857	483.77594	0.0002	0.0000
333.957	493.16803	0.0002	0.0000
334.057	441.83591	0.0002	0.0000
334.157	481.79880	0.0002	0.0000
334.257	483.68097	0.0002	0.0000
334.357	552.51715	0.0002	0.0000
334.457	545.84009	0.0002	0.0000
334.557	556.53876	0.0002	0.0000
334.657	539.83136	0.0002	0.0000
334.757	542.95026	0.0002	0.0000
334.857	479.35065	0.0002	0.0000
334.957	267.88171	0.0002	0.0000
335.057	476.13434	0.0002	0.0000
335.157	560.28772	0.0002	0.0000
335.257	575.21112	0.0002	0.0000
335.357	520.75464	0.0002	0.0000
335.457	533.48718	0.0002	0.0000
335.557	618.06293	0.0002	0.0000
335.657	558.02972	0.0002	0.0000
335.757	581.67639	0.0002	0.0000
335.857	425.12421	0.0002	0.0000
335.957	285.42639	0.0002	0.0000
336.057	255.67795	0.0002	0.0000
336.156	212.71652	0.0003	0.0000
336.256	413.21918	0.0002	0.0000
336.356	507.04938	0.0002	0.0000
336.456	550.94257	0.0002	0.0000
336.556	570.26697	0.0002	0.0000
336.656	477.46902	0.0002	0.0000
336.756	383.46875	0.0002	0.0000
336.856	377.42374	0.0002	0.0000
336.956	312.83014	0.0002	0.0000
337.056	391.35135	0.0002	0.0000
337.156	373.48877	0.0002	0.0000
337.256	303.85324	0.0002	0.0000
337.356	440.60681	0.0002	0.0000
337.456	417.46454	0.0002	0.0000
337.556	593.02814	0.0002	0.0000
337.656	572.56494	0.0002	0.0000
337.756	582.90387	0.0002	0.0000
337.856	494.29184	0.0002	0.0000
337.956	406.91092	0.0002	0.0000
338.056	259.05835	0.0002	0.0000
338.156	556.79504	0.0002	0.0000
338.256	499.59863	0.0002	0.0000
338.356	447.17355	0.0002	0.0000
338.456	512.72888	0.0002	0.0000
338.556	506.62314	0.0002	0.0000
338.656	615.74103	0.0002	0.0000
338.756	483.47278	0.0002	0.0000
338.856	432.47595	0.0002	0.0000
338.956	592.35699	0.0002	0.0000
339.056	572.17621	0.0002	0.0000
339.156	454.60596	0.0002	0.0000
339.255	310.65744	0.0002	0.0000
339.355	421.97488	0.0002	0.0000
339.455	467.66281	0.0002	0.0000
339.555	519.30920	0.0002	0.0000
339.655	533.36285	0.0002	0.0000
339.755	565.27216	0.0002	0.0000
339.855	590.63220	0.0002	0.0000
339.955	563.03015	0.0002	0.0000
340.055	718.90527	0.0001	0.0000
340.155	578.66272	0.0002	0.0000
340.255	536.96210	0.0002	0.0000
340.355	558.02747	0.0002	0.0000
340.455	481.91614	0.0002	0.0000
340.555	581.98779	0.0002	0.0000
340.655	491.97568	0.0002	0.0000
340.755	403.24506	0.0002	0.0000
340.855	552.91022	0.0002	0.0000
340.955	445.35785	0.0002	0.0000
341.055	532.79559	0.0002	0.0000
341.155	594.06049	0.0002	0.0000
341.255	526.03741	0.0002	0.0000
341.355	403.71646	0.0002	0.0000
341.455	343.34518	0.0002	0.0000
341.555	423.70160	0.0002	0.0000
341.655	555.79523	0.0002	0.0000
341.755	502.69064	0.0002	0.0000
341.855	557.07922	0.0002	0.0000
341.955	652.14606	0.0002	0.0000
342.055	611.25897	0.0002	0.0000
342.155	572.54248	0.0002	0.0000
342.255	488.00363	0.0002	0.0000
342.355	446.01053	0.0002	0.0000
342.454	464.98212	0.0002	0.0000
342.554	628.91840	0.0002	0.0000
342.654	478.29913	0.0002	0.0000
342.754	494.13007	0.0002	0.0000
342.854	493.41367	0.0002	0.0000
342.954	683.05670	0.0002	0.0000
343.054	650.66351	0.0002	0.0000
343.154	514.80878	0.0002	0.0000
343.254	529.81720	0.0002	0.0000
343.354	342.48718	0.0002	0.0000
343.454	585.04419	0.0002	0.0000
343.554	623.24280	0.0002	0.0000
343.654	553.21558	0.0002	0.0000
343.754	437.97647	0.0002	0.0000
343.854	493.19659	0.0002	0.0000
343.954	502.35999	0.0002	0.0000
344.054	239.62321	0.0003	0.0000
344.154	258.93744	0.0002	0.0000
344.254	347.76810	0.0002	0.0000
344.354	271.09656	0.0002	0.0000
344.454	423.05011	0.0002	0.0000
344.554	458.59772	0.0002	0.0000
344.654	348.95090	0.0002	0.0000
344.754	471.49786	0.0002	0.0000
344.854	520.45050	0.0002	0.0000
344.954	474.83499	0.0002	0.0000
345.054	606.50122	0.0002	0.0000
345.154	585.92487	0.0002	0.0000
345.254	429.03952	0.0002	0.0000
345.354	398.82947	0.0002	0.0000
345.454	645.01227	0.0002	0.0000
345.554	540.86780	0.0002	0.0000
345.654	504.73541	0.0002	0.0000
345.754	524.30420	0.0002	0.0000
345.853	365.52463	0.0002	0.0000
345.953	464.18402	0.0002	0.0000
346.053	386.18213	0.0002	0.0000
346.153	342.80753	0.0002	0.0000
346.253	450.68826	0.0002	0.0000
346.353	540.05945	0.0002	0.0000
346.453	586.33929	0.0002	0.0000
346.553	462.58414	0.0002	0.0000
346.653	400.82635	0.0002	0.0000
346.753	557.03894	0.0002	0.0000
346.853	534.46814	0.0002	0.0000
346.953	520.22339	0.0002	0.0000
347.053	665.57544	0.0002	0.0000
347.153	540.19104	0.0002	0.0000
347.253	439.48209	0.0002	0.0000
347.353	498.08945	0.0002	0.0000
347.453	437.35953	0.0002	0.0000
347.553	317.73468	0.0002	0.0000
347.653	346.66595	0.0002	0.0000
347.753	410.41116	0.0002	0.0000
347.853	524.04456	0.0002	0.0000
347.953	554.41437	0.0002	0.0000
348.053	521.00842	0.0002	0.0000
348.153	528.37280	0.0002	0.0000
348.253	503.57657	0.0002	0.0000
348.353	406.22171	0.0002	0.0000
348.453	484.16748	0.0002	0.0000
348.553	417.44864	0.0002	0.0000
348.653	549.42786	0.0002	0.0000
348.753	643.92383	0.0002	0.0000
348.853	517.20111	0.0002	0.0000
348.953	401.77133	0.0002	0.0000
349.053	333.23441	0.0002	0.0000
349.153	447.57413	0.0002	0.0000
349.253	384.70020	0.0002	0.0000
349.353	475.42801	0.0002	0.0000
349.452	577.64667	0.0002	0.0000
349.552	473.91931	0.0002	0.0000
349.652	404.59155	0.0002	0.0000
349.752	344.91171	0.0002	0.0000
349.852	471.66055	0.0002	0.0000
349.952	677.97754	0.0002	0.0000
350.052	567.64142	0.0002	0.0000
350.152	634.08020	0.0002	0.0000
350.252	525.06427	0.0002	0.0000
350.352	716.94788	0.0001	0.0000
350.452	621.86432	0.0002	0.0000
350.552	561.98193	0.0002	0.0000
350.652	517.15027	0.0002	0.0000
350.752	617.45990	0.0002	0.0000
350.852	625.33917	0.0002	0.0000
350.952	606.67755	0.0002	0.0000
351.052	382.13483	0.0002	0.0000
351.152	599.86591	0.0002	0.0000
351.252	506.61615	0.0002	0.0000
351.352	450.83054	0.0002	0.0000
351.452	419.60135	0.0002	0.0000
351.552	431.01886	0.0002	0.0000
351.652	599.71033	0.0002	0.0000
351.752	711.24683	0.0002	0.0000
351.852	613.68048	0.0002	0.0000
351.952	593.88531	0.0002	0.0000
352.052	547.41132	0.0002	0.0000
352.152	419.63638	0.0002	0.0000
352.252	565.85645	0.0002	0.0000
352.352	467.59598	0.0002	0.0000
352.452	302.17767	0.0002	0.0000
352.552	480.25601	0.0002	0.0000
352.652	240.04462	0.0003	0.0000
352.752	514.63397	0.0002	0.0000
352.852	601.09509	0.0002	0.0000
352.952	598.88867	0.0002	0.0000
353.052	606.91602	0.0002	0.0000
353.152	560.08380	0.0002	0.0000
353.251	453.51462	0.0002	0.0000
353.351	504.38333	0.0002	0.0000
353.451	703.71216	0.0002	0.0000
353.551	605.24567	0.0002	0.0000
353.651	593.55756	0.0002	0.0000
353.751	570.28424	0.0002	0.0000
353.851	557.22479	0.0002	0.0000
353.951	770.83948	0.0001	0.0000
354.051	640.58075	0.0002	0.0000
354.151	532.12463	0.0002	0.0000
354.251	563.22577	0.0002	0.0000
354.351	652.29755	0.0002	0.0000
354.451	687.72540	0.0002	0.0000
354.551	593.69537	0.0002	0.0000
354.651	680.31665	0.0002	0.0000
354.751	620.63721	0.0002	0.0000
354.851	526.36896	0.0002	0.0000
354.951	704.59747	0.0002	0.0000
355.051	664.22852	0.0002	0.0000
355.151	632.66455	0.0002	0.0000
355.251	625.19714	0.0002	0.0000
355.351	547.07379	0.0002	0.0000
355.451	458.87619	0.0002	0.0000
355.551	647.89508	0.0002	0.0000
355.651	557.23810	0.0002	0.0000
355.751	670.56573	0.0002	0.0000
355.851	490.41379	0.0002	0.0000
355.951	562.83856	0.0002	0.0000
356.051	590.07642	0.0002	0.0000
356.151	590.98639	0.0002	0.0000
356.251	654.06500	0.0002	0.0000
356.351	751.54108	0.0001	0.0000
356.451	589.23700	0.0002	0.0000
356.551	273.35428	0.0002	0.0000
356.651	315.37112	0.0002	0.0000
356.751	572.13440	0.0002	0.0000
356.851	526.35449	0.0002	0.0000
356.951	242.56497	0.0003	0.0000
357.051	286.00772	0.0002	0.0000
357.151	471.56619	0.0002	0.0000
357.250	439.33591	0.0002	0.0000
357.350	557.99066	0.0002	0.0000
357.450	502.86792	0.0002	0.0000
357.550	486.68399	0.0002	0.0000
357.650	568.26917	0.0002	0.0000
357.750	614.63251	0.0002	0.0000
357.850	415.06033	0.0002	0.0000
357.950	480.18158	0.0002	0.0000
358.050	298.50461	0.0002	0.0000
358.150	199.82765	0.0003	0.0000
358.250	372.46707	0.0002	0.0000
358.350	448.79745	0.0002	0.0000
358.450	440.42953	0.0002	0.0000
358.550	210.43916	0.0003	0.0000
358.650	342.12494	0.0002	0.0000
358.750	294.78372	0.0002	0.0000
358.850	447.91479	0.0002	0.0000
358.950	409.94125	0.0002	0.0000
359.050	488.54691	0.0002	0.0000
359.150	667.84259	0.0002	0.0000
359.250	654.13556	0.0002	0.0000
359.350	478.00299	0.0002	0.0000
359.450	584.55139	0.0002	0.0000
359.550	645.42224	0.0002	0.0000
359.650	692.04486	0.0002	0.0000
359.750	678.57257	0.0002	0.0000
359.850	650.65826	0.0002	0.0000
359.950	622.80792	0.0002	0.0000
360.050	757.42688	0.0001	0.0000
